strain,stress
0.0000,122.27
0.0000,122.50
0.0000,123.83
0.0000,124.24
0.0000,125.00
0.0001,126.68
0.0001,127.45
0.0001,126.83
0.0001,128.70
0.0002,129.89
0.0002,130.93
0.0003,129.83
0.0003,131.50
0.0003,132.27
0.0003,130.88
0.0004,129.01
0.0004,126.92
0.0003,126.16
0.0003,125.95
0.0003,125.95
0.0003,125.60
0.0003,125.87
0.0003,126.01
0.0003,126.01
0.0003,125.87
0.0003,125.87
0.0003,126.01
0.0002,126.08
0.0003,125.80
0.0003,126.15
0.0003,126.01
0.0003,125.94
0.0003,126.29
0.0003,126.02
0.0003,126.08
0.0003,126.02
0.0004,125.95
0.0003,126.09
0.0004,125.88
0.0003,126.02
0.0003,125.60
0.0003,126.08
0.0003,126.22
0.0003,125.81
0.0003,125.88
0.0003,125.87
0.0002,126.35
0.0002,126.28
0.0003,126.15
0.0003,126.08
0.0002,126.08
0.0002,126.07
0.0003,126.29
0.0003,126.22
0.0003,126.29
0.0004,116.17
0.0003,126.16
0.0003,126.09
0.0004,125.95
0.0003,125.88
0.0003,126.02
0.0003,126.15
0.0003,126.22
0.0003,126.16
0.0003,126.01
0.0003,125.74
0.0003,126.22
0.0003,126.29
0.0003,126.15
0.0003,126.15
0.0003,125.73
0.0003,126.29
0.0003,126.50
0.0003,126.43
0.0003,126.57
0.0003,126.29
0.0003,126.01
0.0003,126.43
0.0003,126.22
0.0003,126.36
0.0004,126.02
0.0003,126.43
0.0004,126.30
0.0004,126.17
0.0005,126.45
0.0006,126.33
0.0007,126.35
0.0011,126.53
0.0015,126.37
0.0019,126.43
0.0025,126.43
0.0031,126.58
0.0038,126.38
0.0044,126.74
0.0050,126.96
0.0054,126.80
0.0057,126.98
0.0059,127.29
0.0060,127.78
0.0061,128.01
0.0061,128.16
0.0061,128.78
0.0061,129.62
0.0061,129.14
0.0061,129.69
0.0062,130.75
0.0061,131.30
0.0061,131.44
0.0062,132.29
0.0062,133.34
0.0062,133.77
0.0063,134.13
0.0064,134.35
0.0064,135.33
0.0065,135.62
0.0065,135.69
0.0066,136.05
0.0066,136.27
0.0068,136.15
0.0070,135.96
0.0072,136.41
0.0075,136.67
0.0079,136.59
0.0086,131.73
0.0089,136.83
0.0089,136.83
0.0089,137.21
0.0088,132.08
0.0086,137.42
0.0085,137.24
0.0086,137.20
0.0086,137.17
0.0087,137.32
0.0087,137.58
0.0088,137.70
0.0090,138.13
0.0089,138.73
0.0089,139.07
0.0089,138.68
0.0088,139.02
0.0087,140.59
0.0086,140.06
0.0086,140.44
0.0087,136.80
0.0087,141.64
0.0087,142.56
0.0088,139.21
0.0089,143.25
0.0091,142.93
0.0097,138.51
0.0105,143.91
0.0114,139.04
0.0116,144.35
0.0117,144.43
0.0117,144.71
0.0116,144.56
0.0116,144.87
0.0115,144.79
0.0114,144.96
0.0114,145.24
0.0114,145.17
0.0115,144.86
0.0116,141.89
0.0118,138.63
0.0118,138.74
0.0118,139.31
0.0118,139.09
0.0118,139.44
0.0117,139.16
0.0117,139.50
0.0116,139.60
0.0118,141.00
0.0118,140.40
0.0118,141.74
0.0118,141.52
0.0118,142.37
0.0119,142.45
0.0118,143.33
0.0120,143.98
0.0123,143.33
0.0128,143.68
0.0139,143.87
0.0147,143.98
0.0150,144.25
0.0150,144.53
0.0151,144.61
0.0150,144.35
0.0150,144.85
0.0150,144.91
0.0150,144.95
0.0150,145.23
0.0150,145.23
0.0150,145.41
0.0150,145.63
0.0150,145.63
0.0150,147.01
0.0151,145.53
0.0151,146.94
0.0151,147.41
0.0151,147.83
0.0151,147.72
0.0151,147.97
0.0150,148.03
0.0150,148.88
0.0151,147.97
0.0150,150.44
0.0151,148.97
0.0151,149.92
0.0151,150.62
0.0151,150.77
0.0153,152.11
0.0156,151.37
0.0162,151.25
0.0165,152.93
0.0166,152.48
0.0166,153.41
0.0171,152.06
0.0176,153.38
0.0183,152.25
0.0185,153.63
0.0186,152.89
0.0185,153.14
0.0185,153.67
0.0186,153.67
0.0186,153.78
0.0186,153.68
0.0186,153.79
0.0186,153.93
0.0186,153.97
0.0186,153.96
0.0186,154.10
0.0186,154.67
0.0186,155.10
0.0185,155.45
0.0185,155.13
0.0186,155.84
0.0186,156.30
0.0186,156.42
0.0186,157.38
0.0187,157.28
0.0187,156.89
0.0187,158.07
0.0188,158.00
0.0188,157.66
0.0188,158.72
0.0192,159.26
0.0198,158.80
0.0197,159.19
0.0197,160.58
0.0197,161.50
0.0201,159.99
0.0205,160.16
0.0204,161.47
0.0205,161.69
0.0205,162.56
0.0207,161.27
0.0209,163.26
0.0210,163.13
0.0213,162.18
0.0216,162.98
0.0217,163.11
0.0217,161.83
0.0217,162.96
0.0217,162.64
0.0217,162.82
0.0217,163.71
0.0217,163.43
0.0217,164.14
0.0217,163.08
0.0218,162.55
0.0218,163.80
0.0218,163.27
0.0218,162.63
0.0217,163.83
0.0217,162.65
0.0217,163.61
0.0217,163.65
0.0217,164.86
0.0217,164.94
0.0218,164.27
0.0218,164.02
0.0218,164.95
0.0219,164.60
0.0219,165.42
0.0218,165.60
0.0221,165.32
0.0229,167.10
0.0231,166.66
0.0231,167.17
0.0232,167.28
0.0232,167.75
0.0232,167.82
0.0232,167.44
0.0232,169.04
0.0233,168.30
0.0233,169.28
0.0243,169.38
0.0244,169.89
0.0245,169.79
0.0245,170.40
0.0247,171.24
0.0251,171.77
0.0252,171.92
0.0252,172.42
0.0252,171.85
0.0252,172.50
0.0253,173.62
0.0253,172.09
0.0254,173.43
0.0259,172.41
0.0262,173.47
0.0263,172.37
0.0263,174.27
0.0263,174.24
0.0265,173.58
0.0265,175.07
0.0267,173.94
0.0268,174.60
0.0268,174.64
0.0268,173.53
0.0268,175.72
0.0268,173.79
0.0268,175.01
0.0268,174.43
0.0268,174.79
0.0269,174.58
0.0268,175.90
0.0268,177.16
0.0269,175.34
0.0268,175.08
0.0268,175.12
0.0269,175.55
0.0269,176.31
0.0269,176.17
0.0269,175.88
0.0269,176.92
0.0269,177.68
0.0269,176.28
0.0269,177.28
0.0270,177.37
0.0272,177.23
0.0273,178.58
0.0273,176.89
0.0273,178.48
0.0273,179.30
0.0281,176.38
0.0288,178.09
0.0288,178.70
0.0288,179.18
0.0289,179.44
0.0290,180.18
0.0300,181.12
0.0307,179.15
0.0312,180.18
0.0312,181.02
0.0312,181.08
0.0312,182.89
0.0312,181.59
0.0312,182.67
0.0312,183.15
0.0312,181.85
0.0313,181.46
0.0313,182.79
0.0313,183.91
0.0313,183.24
0.0313,181.90
0.0313,184.14
0.0313,182.66
0.0313,184.00
0.0313,183.99
0.0313,183.24
0.0313,185.18
0.0313,185.08
0.0313,185.34
0.0313,184.21
0.0314,184.47
0.0313,185.59
0.0314,183.58
0.0314,184.23
0.0316,183.66
0.0319,185.23
0.0325,186.21
0.0326,184.60
0.0326,187.34
0.0331,187.05
0.0332,187.61
0.0332,186.34
0.0333,186.50
0.0332,186.20
0.0333,187.00
0.0333,187.58
0.0332,187.83
0.0332,187.83
0.0333,186.93
0.0332,188.23
0.0333,186.21
0.0332,188.34
0.0333,186.89
0.0332,189.64
0.0333,189.57
0.0333,188.45
0.0333,190.80
0.0333,190.81
0.0333,188.82
0.0333,189.40
0.0333,189.80
0.0333,190.42
0.0334,190.03
0.0335,190.85
0.0336,192.16
0.0336,191.67
0.0336,192.61
0.0337,190.01
0.0336,192.76
0.0337,191.02
0.0337,190.56
0.0337,190.92
0.0337,193.25
0.0357,191.48
0.0358,194.37
0.0366,192.61
0.0374,192.34
0.0374,192.81
0.0375,192.97
0.0375,194.24
0.0375,194.10
0.0375,193.26
0.0375,193.99
0.0375,194.20
0.0375,194.35
0.0375,194.31
0.0375,194.89
0.0375,196.53
0.0375,193.52
0.0376,194.32
0.0375,194.43
0.0376,194.22
0.0375,193.66
0.0375,196.03
0.0375,194.65
0.0375,195.29
0.0375,195.16
0.0375,196.72
0.0375,196.87
0.0377,197.31
0.0380,198.30
0.0385,197.02
0.0390,197.67
0.0392,198.07
0.0392,198.59
0.0392,199.72
0.0393,199.26
0.0393,198.06
0.0393,199.70
0.0393,197.77
0.0393,199.67
0.0402,199.84
0.0403,199.82
0.0402,200.94
0.0403,201.10
0.0403,200.37
0.0403,199.32
0.0403,201.10
0.0404,198.64
0.0404,200.51
0.0405,199.06
0.0404,200.59
0.0404,200.69
0.0404,199.78
0.0404,202.26
0.0405,198.66
0.0405,199.35
0.0404,201.93
0.0405,202.31
0.0404,202.74
0.0405,200.37
0.0405,199.72
0.0405,199.10
0.0405,201.40
0.0405,202.64
0.0405,203.77
0.0405,199.69
0.0405,202.09
0.0405,203.33
0.0405,203.81
0.0406,201.52
0.0419,203.74
0.0420,203.31
0.0420,204.44
0.0420,201.86
0.0420,205.51
0.0420,202.37
0.0420,203.65
0.0420,204.02
0.0420,204.86
0.0420,205.23
0.0420,204.83
0.0420,205.26
0.0420,205.45
0.0421,204.92
0.0422,205.81
0.0422,207.58
0.0431,206.06
0.0437,207.40
0.0437,207.04
0.0437,206.79
0.0437,207.42
0.0438,207.42
0.0438,208.26
0.0438,207.83
0.0438,208.20
0.0438,208.35
0.0438,209.48
0.0439,208.03
0.0439,208.32
0.0439,207.92
0.0439,208.29
0.0445,208.39
0.0446,208.62
0.0445,207.91
0.0446,209.35
0.0446,209.98
0.0446,207.23
0.0446,210.05
0.0446,210.31
0.0446,210.60
0.0446,210.65
0.0446,210.57
0.0446,212.56
0.0447,212.53
0.0447,208.71
0.0447,211.28
0.0447,211.54
0.0447,211.62
0.0452,211.80
0.0465,211.92
0.0466,212.05
0.0475,211.45
0.0477,211.78
0.0478,213.65
0.0479,210.53
0.0479,214.17
0.0479,210.94
0.0479,213.99
0.0479,212.81
0.0479,212.92
0.0478,213.57
0.0479,214.92
0.0479,214.66
0.0479,212.42
0.0479,213.04
0.0479,213.49
0.0479,213.67
0.0479,212.49
0.0479,215.55
0.0480,212.83
0.0480,213.47
0.0479,214.23
0.0479,217.40
0.0479,215.30
0.0480,212.06
0.0479,215.55
0.0480,213.02
0.0479,216.66
0.0481,212.74
0.0499,216.40
0.0500,215.35
0.0500,216.34
0.0501,214.10
0.0501,217.61
0.0501,215.33
0.0501,215.85
0.0501,214.67
0.0501,215.70
0.0501,216.76
0.0501,217.11
0.0501,217.46
0.0501,217.40
0.0500,217.46
0.0501,217.99
0.0501,218.61
0.0501,217.74
0.0501,217.58
0.0502,217.52
0.0502,217.50
0.0503,217.77
0.0506,218.01
0.0506,219.02
0.0506,216.92
0.0506,218.58
0.0506,219.87
0.0506,218.42
0.0506,221.27
0.0506,218.69
0.0506,222.20
0.0507,219.81
0.0508,216.80
0.0522,220.19
0.0523,220.51
0.0533,220.34
0.0533,223.23
0.0534,220.84
0.0534,221.87
0.0534,218.24
0.0534,221.27
0.0534,222.17
0.0534,223.14
0.0534,220.80
0.0534,222.39
0.0534,220.64
0.0534,224.79
0.0534,220.98
0.0534,224.24
0.0534,220.80
0.0534,224.17
0.0535,221.11
0.0534,224.62
0.0534,223.69
0.0534,224.69
0.0534,225.55
0.0535,221.73
0.0534,225.32
0.0535,219.99
0.0534,223.36
0.0535,223.67
0.0535,223.20
0.0536,223.13
0.0540,224.29
0.0552,225.52
0.0553,224.57
0.0553,224.01
0.0553,223.87
0.0553,225.31
0.0553,227.84
0.0553,224.05
0.0553,224.28
0.0554,224.28
0.0553,227.51
0.0554,224.32
0.0554,227.63
0.0554,224.04
0.0554,227.33
0.0555,224.82
0.0554,228.26
0.0554,227.41
0.0558,222.81
0.0560,226.82
0.0561,228.31
0.0566,229.52
0.0567,225.59
0.0567,229.13
0.0568,229.11
0.0568,229.67
0.0568,227.07
0.0569,230.77
0.0569,226.54
0.0569,229.96
0.0570,229.52
0.0570,228.37
0.0569,228.73
0.0570,227.71
0.0569,227.13
0.0569,231.52
0.0569,230.86
0.0570,226.62
0.0570,226.59
0.0570,227.74
0.0569,231.08
0.0570,226.45
0.0570,230.04
0.0570,227.53
0.0570,228.53
0.0577,228.77
0.0578,228.93
0.0578,228.75
0.0578,229.50
0.0593,228.79
0.0600,233.26
0.0601,229.43
0.0600,233.61
0.0601,230.96
0.0601,231.68
0.0601,233.66
0.0601,232.10
0.0602,230.79
0.0601,231.19
0.0601,233.63
0.0602,230.05
0.0601,232.80
0.0601,229.93
0.0601,232.72
0.0602,232.25
0.0601,230.94
0.0601,235.27
0.0610,229.61
0.0618,234.44
0.0619,236.44
0.0620,232.30
0.0619,234.95
0.0620,231.03
0.0619,233.79
0.0620,233.91
0.0620,232.60
0.0619,236.11
0.0620,236.23
0.0620,237.51
0.0620,235.01
0.0619,235.63
0.0620,235.95
0.0620,233.97
0.0622,232.85
0.0622,236.90
0.0623,235.83
0.0623,236.19
0.0623,235.84
0.0623,237.14
0.0624,236.71
0.0626,237.44
0.0627,235.81
0.0626,236.32
0.0626,238.76
0.0627,239.03
0.0638,235.50
0.0648,239.95
0.0649,237.57
0.0648,238.72
0.0649,237.53
0.0649,238.36
0.0649,237.25
0.0649,237.91
0.0649,239.80
0.0649,239.76
0.0649,240.51
0.0649,239.32
0.0649,241.03
0.0649,237.73
0.0649,240.28
0.0649,237.32
0.0649,239.98
0.0650,237.37
0.0650,240.45
0.0650,237.80
0.0650,240.72
0.0650,238.55
0.0650,241.17
0.0650,238.62
0.0649,241.12
0.0650,236.73
0.0649,239.05
0.0650,239.59
0.0650,237.57
0.0650,242.18
0.0651,239.05
0.0650,238.09
0.0650,240.20
0.0650,241.22
0.0650,239.80
0.0650,240.20
0.0650,242.72
0.0650,239.23
0.0650,241.84
0.0651,236.80
0.0669,240.28
0.0669,244.40
0.0671,239.27
0.0671,243.64
0.0672,241.63
0.0671,241.44
0.0672,244.04
0.0672,243.50
0.0672,244.74
0.0685,240.82
0.0686,244.32
0.0687,238.88
0.0686,241.46
0.0687,243.58
0.0687,243.73
0.0687,243.26
0.0686,241.39
0.0686,245.92
0.0687,243.63
0.0695,243.63
0.0695,246.06
0.0696,241.73
0.0695,244.39
0.0696,242.60
0.0695,241.11
0.0695,246.03
0.0696,245.81
0.0695,247.24
0.0696,243.06
0.0695,247.58
0.0696,240.52
0.0695,245.61
0.0695,247.95
0.0696,242.72
0.0695,245.58
0.0696,244.99
0.0695,243.38
0.0696,247.47
0.0696,242.34
0.0696,246.45
0.0696,245.13
0.0695,245.26
0.0696,244.79
0.0695,245.45
0.0695,248.52
0.0696,246.95
0.0696,245.78
0.0696,245.92
0.0696,248.19
0.0696,245.68
0.0696,246.46
0.0696,249.63
0.0696,247.19
0.0696,248.58
0.0696,248.43
0.0696,249.61
0.0696,250.25
0.0697,245.92
0.0697,248.34
0.0698,247.79
0.0710,245.99
0.0723,250.46
0.0723,248.97
0.0723,248.43
0.0723,251.16
0.0725,244.98
0.0723,247.87
0.0723,250.94
0.0723,250.63
0.0723,252.46
0.0724,249.78
0.0724,250.76
0.0724,248.92
0.0724,248.83
0.0724,250.92
0.0724,251.08
0.0727,250.16
0.0734,251.39
0.0746,249.36
0.0759,250.74
0.0760,252.02
0.0761,252.16
0.0761,251.84
0.0761,251.86
0.0762,250.51
0.0761,249.80
0.0761,253.34
0.0762,251.88
0.0761,251.19
0.0762,254.39
0.0762,253.87
0.0762,253.48
0.0762,252.19
0.0764,252.16
0.0764,255.82
0.0765,249.90
0.0764,253.72
0.0764,256.85
0.0764,251.87
0.0764,255.52
0.0765,254.59
0.0764,253.89
0.0765,254.39
0.0764,254.69
0.0764,252.06
0.0764,255.82
0.0765,250.97
0.0764,254.72
0.0765,251.04
0.0764,254.99
0.0765,254.44
0.0765,253.93
0.0765,253.03
0.0764,252.33
0.0765,252.87
0.0765,253.18
0.0765,252.72
0.0764,252.02
0.0764,256.06
0.0765,250.63
0.0764,253.70
0.0764,257.97
0.0765,251.55
0.0765,255.27
0.0765,254.29
0.0767,253.31
0.0767,257.17
0.0768,255.65
0.0767,257.89
0.0768,257.63
0.0768,257.94
0.0768,256.84
0.0768,259.05
0.0781,253.94
0.0781,257.69
0.0783,258.75
0.0795,259.49
0.0795,257.75
0.0795,255.75
0.0795,259.88
0.0796,258.94
0.0795,259.24
0.0795,259.05
0.0795,260.84
0.0795,261.00
0.0796,257.61
0.0795,255.45
0.0795,259.92
0.0795,262.23
0.0814,256.78
0.0815,259.60
0.0816,257.75
0.0815,256.24
0.0815,260.38
0.0816,262.38
0.0816,259.14
0.0816,262.24
0.0816,261.06
0.0816,259.63
0.0817,258.80
0.0817,256.89
0.0816,261.12
0.0817,258.46
0.0816,257.11
0.0817,260.30
0.0817,259.13
0.0817,257.20
0.0817,261.30
0.0817,256.78
0.0816,261.06
0.0817,259.69
0.0816,259.22
0.0816,262.33
0.0817,257.86
0.0817,261.03
0.0818,260.21
0.0817,258.58
0.0817,261.92
0.0818,260.83
0.0817,260.50
0.0817,263.65
0.0818,259.21
0.0817,262.61
0.0817,261.23
0.0817,259.97
0.0817,263.81
0.0818,263.94
0.0818,264.78
0.0818,264.41
0.0842,259.25
0.0846,263.20
0.0847,266.52
0.0849,262.76
0.0848,261.82
0.0848,264.71
0.0849,265.58
0.0849,264.85
0.0849,266.12
0.0849,266.27
0.0849,264.28
0.0849,262.31
0.0849,265.82
0.0850,261.56
0.0850,263.83
0.0850,266.68
0.0850,265.35
0.0850,263.53
0.0850,267.26
0.0850,267.38
0.0850,266.31
0.0850,266.85
0.0850,267.74
0.0850,267.81
0.0851,267.82
0.0851,266.10
0.0851,267.44
0.0851,267.51
0.0851,268.28
0.0851,268.79
0.0851,262.10
0.0850,265.39
0.0850,268.66
0.0851,265.94
0.0850,262.20
0.0851,263.51
0.0851,264.52
0.0851,265.52
0.0851,265.71
0.0851,265.67
0.0851,265.90
0.0851,266.40
0.0851,266.41
0.0851,267.55
0.0851,266.30
0.0851,265.98
0.0851,268.56
0.0856,261.72
0.0859,265.30
0.0859,268.39
0.0862,262.48
0.0865,265.70
0.0870,265.52
0.0875,265.66
0.0875,264.83
0.0876,263.37
0.0875,267.36
0.0876,266.08
0.0876,264.60
0.0876,265.43
0.0876,266.00
0.0876,267.74
0.0876,264.84
0.0876,267.35
0.0876,265.85
0.0876,269.16
0.0876,267.21
0.0877,267.02
0.0876,267.08
0.0876,269.94
0.0876,265.44
0.0876,267.86
0.0877,266.80
0.0876,265.73
0.0876,266.36
0.0876,266.04
0.0876,270.13
0.0877,269.38
0.0876,268.02
0.0877,262.48
0.0876,266.48
0.0876,269.72
0.0877,264.10
0.0876,265.90
0.0876,269.68
0.0877,264.37
0.0876,268.48
0.0876,271.57
0.0877,266.68
0.0876,269.83
0.0877,268.93
0.0876,267.29
0.0877,267.11
0.0877,267.33
0.0877,270.00
0.0877,269.70
0.0877,270.24
0.0877,270.78
0.0877,270.94
0.0877,271.71
0.0878,268.48
0.0877,267.65
0.0877,267.11
0.0877,266.10
0.0877,270.07
0.0878,268.24
0.0877,266.79
0.0877,269.88
0.0877,269.59
0.0877,268.97
0.0878,266.83
0.0878,264.01
0.0877,268.23
0.0877,270.70
0.0877,270.59
0.0877,269.54
0.0878,268.33
0.0878,266.22
0.0878,270.28
0.0879,272.60
0.0894,266.91
0.0908,270.55
0.0908,274.27
0.0909,266.28
0.0908,270.87
0.0909,273.62
0.0923,267.96
0.0936,271.66
0.0936,275.00
0.0938,270.79
0.0938,275.08
0.0939,275.14
0.0939,274.63
0.0940,275.35
0.0940,274.30
0.0940,273.60
0.0940,273.96
0.0940,274.46
0.0940,275.63
0.0940,275.20
0.0939,276.35
0.0940,275.32
0.0939,275.25
0.0941,276.58
0.0942,271.47
0.0940,268.22
0.0940,272.28
0.0940,275.76
0.0941,275.14
0.0941,274.06
0.0940,278.05
0.0942,276.37
0.0941,276.50
0.0941,277.48
0.0941,278.69
0.0942,272.35
0.0941,275.59
0.0942,271.32
0.0941,274.84
0.0941,277.79
0.0950,273.23
0.0959,275.65
0.0960,274.23
0.0981,271.47
0.0981,275.77
0.0981,278.62
0.0982,273.03
0.0982,277.00
0.0983,271.21
0.0982,274.23
0.0982,278.22
0.0983,276.64
0.0982,276.18
0.0982,279.43
0.0982,277.45
0.0982,275.18
0.0982,279.12
0.0983,276.84
0.0982,277.35
0.0983,277.06
0.0982,273.69
0.0982,277.60
0.0983,276.99
0.0983,275.22
0.0982,279.20
0.0983,278.48
0.0983,277.29
0.0983,280.07
0.0983,275.39
0.0983,278.39
0.0983,277.63
0.0983,275.19
0.0983,279.80
0.0984,277.16
0.0983,275.42
0.0983,278.63
0.0984,276.62
0.0983,273.44
0.0983,278.01
0.0984,277.98
0.0983,278.04
0.0983,277.98
0.0983,277.92
0.0983,275.78
0.0983,275.55
0.0983,278.78
0.0983,276.80
0.0983,276.33
0.0983,277.51
0.0983,277.93
0.0984,275.50
0.0983,274.07
0.0983,278.16
0.0983,281.29
0.0984,277.36
0.0983,279.88
0.0983,274.49
0.0983,277.81
0.0984,277.94
0.0984,277.28
0.0983,281.10
0.0984,274.95
0.0983,277.11
0.0983,280.59
0.0984,281.43
0.0983,279.93
0.0983,281.72
0.0984,281.04
0.0984,280.02
0.0984,280.25
0.0983,281.03
0.0984,281.54
0.0984,281.03
0.0984,281.35
0.0984,282.33
0.0984,279.45
0.0987,277.38
0.0987,279.85
0.0988,279.04
0.1018,277.27
0.1019,281.37
0.1019,284.44
0.1021,276.35
0.1022,279.36
0.1023,283.17
0.1024,281.52
0.1028,281.65
0.1029,284.44
0.1030,278.70
0.1029,282.03
0.1030,281.53
0.1038,280.44
0.1039,284.42
0.1039,282.16
0.1040,280.91
0.1040,284.22
0.1041,283.33
0.1040,281.83
0.1040,285.84
0.1041,277.61
0.1040,281.25
0.1040,285.21
0.1041,281.61
0.1040,284.50
0.1041,285.26
0.1041,285.07
0.1041,280.48
0.1040,283.61
0.1041,283.38
0.1040,282.26
0.1041,285.30
0.1041,286.45
0.1041,287.42
0.1042,279.87
0.1040,284.75
0.1041,287.71
0.1041,280.17
0.1041,282.79
0.1041,287.31
0.1041,286.54
0.1040,286.67
0.1041,286.61
0.1041,287.16
0.1041,283.48
0.1041,287.39
0.1041,283.67
0.1041,281.73
0.1041,285.03
0.1041,285.44
0.1041,284.91
0.1040,288.92
0.1041,287.56
0.1041,287.05
0.1042,288.99
0.1042,288.92
0.1042,289.43
0.1042,289.89
0.1042,280.20
0.1041,284.14
0.1041,287.09
0.1042,284.02
0.1042,279.67
0.1041,284.73
0.1041,287.92
0.1042,284.71
0.1041,287.48
0.1042,284.92
0.1041,283.12
0.1041,287.33
0.1042,284.80
0.1042,283.28
0.1041,286.70
0.1042,284.68
0.1041,281.87
0.1042,285.29
0.1042,288.79
0.1042,283.34
0.1041,285.80
0.1042,290.32
0.1057,281.59
0.1070,285.70
0.1071,289.17
0.1072,289.37
0.1093,289.32
0.1094,287.34
0.1110,284.43
0.1125,288.95
0.1125,292.14
0.1127,289.82
0.1129,289.07
0.1130,290.60
0.1131,284.63
0.1130,288.86
0.1130,291.53
0.1131,288.30
0.1131,291.35
0.1132,283.79
0.1131,287.22
0.1131,291.03
0.1131,289.01
0.1131,288.45
0.1131,291.59
0.1131,292.47
0.1131,292.68
0.1132,285.00
0.1131,288.38
0.1131,292.20
0.1132,289.20
0.1131,287.82
0.1131,290.96
0.1132,288.80
0.1131,286.12
0.1131,290.08
0.1131,292.35
0.1132,291.38
0.1131,289.02
0.1131,292.08
0.1132,291.77
0.1132,293.04
0.1132,293.68
0.1132,294.87
0.1132,293.96
0.1133,290.37
0.1133,288.74
0.1132,292.68
0.1132,295.47
0.1132,289.52
0.1132,292.44
0.1132,295.66
0.1133,286.88
0.1132,291.06
0.1132,293.01
0.1133,292.40
0.1132,289.40
0.1132,293.72
0.1132,297.18
0.1132,292.98
0.1132,295.68
0.1133,294.22
0.1132,295.88
0.1132,295.53
0.1132,295.61
0.1133,295.38
0.1132,294.85
0.1133,296.80
0.1133,296.09
0.1133,291.82
0.1143,287.54
0.1151,291.88
0.1152,295.23
0.1152,298.31
0.1154,291.37
0.1155,295.32
0.1164,294.35
0.1172,294.30
0.1173,297.19
0.1175,286.77
0.1175,290.28
0.1176,294.07
0.1176,297.16
0.1176,290.73
0.1176,293.92
0.1176,297.79
0.1177,288.53
0.1176,292.85
0.1176,295.84
0.1176,299.79
0.1177,289.28
0.1176,293.60
0.1176,296.59
0.1176,300.43
0.1177,288.93
0.1176,293.06
0.1176,296.89
0.1176,299.76
0.1177,288.74
0.1176,292.81
0.1176,295.96
0.1177,292.36
0.1176,295.72
0.1176,298.48
0.1176,295.58
0.1176,293.29
0.1176,296.40
0.1176,300.39
0.1177,292.00
0.1176,294.97
0.1176,299.00
0.1177,290.40
0.1176,293.25
0.1176,297.92
0.1177,294.67
0.1176,291.89
0.1176,295.17
0.1176,299.01
0.1177,292.40
0.1176,292.98
0.1176,296.97
0.1176,300.56
0.1177,289.77
0.1176,293.97
0.1176,297.60
0.1176,300.87
0.1180,291.77
0.1182,295.98
0.1182,299.27
0.1200,292.47
0.1216,295.32
0.1216,299.33
0.1217,300.27
0.1223,295.46
0.1223,298.64
0.1224,302.58
0.1225,293.35
0.1225,297.99
0.1225,301.01
0.1225,293.01
0.1225,296.19
0.1225,300.25
0.1226,298.91
0.1225,298.68
0.1225,302.09
0.1226,295.36
0.1225,298.69
0.1225,301.71
0.1226,299.32
0.1225,296.81
0.1226,299.63
0.1226,303.00
0.1226,296.60
0.1226,300.75
0.1226,303.64
0.1226,302.13
0.1226,302.97
0.1226,301.72
0.1226,303.16
0.1226,305.14
0.1227,303.31
0.1226,304.14
0.1226,304.83
0.1226,305.15
0.1227,305.84
0.1227,304.40
0.1227,304.52
0.1229,291.34
0.1226,294.80
0.1226,298.97
0.1227,301.15
0.1228,300.21
0.1227,296.94
0.1227,301.90
0.1227,304.75
0.1227,297.20
0.1227,300.30
0.1226,304.31
0.1226,298.77
0.1226,297.24
0.1226,300.17
0.1226,303.38
0.1227,298.15
0.1226,301.98
0.1227,304.96
0.1227,296.37
0.1226,299.61
0.1226,303.58
0.1227,296.58
0.1226,300.49
0.1226,303.70
0.1227,294.58
0.1226,297.77
0.1226,302.06
0.1227,304.67
0.1226,302.74
0.1227,300.64
0.1250,299.61
0.1250,302.12
0.1251,306.79
0.1266,297.52
0.1279,302.20
0.1280,305.49
0.1281,302.63
0.1284,300.04
0.1284,304.28
0.1284,307.56
0.1285,302.93
0.1285,306.09
0.1286,297.44
0.1285,300.52
0.1285,304.84
0.1286,302.37
0.1285,301.12
0.1285,304.23
0.1286,300.19
0.1285,303.23
0.1286,301.73
0.1285,299.60
0.1285,303.96
0.1286,307.08
0.1287,297.20
0.1286,300.62
0.1286,304.77
0.1285,307.68
0.1286,297.37
0.1285,300.69
0.1285,305.00
0.1286,302.68
0.1285,303.51
0.1285,306.71
0.1286,298.42
0.1285,301.58
0.1285,305.81
0.1286,295.31
0.1285,300.00
0.1285,302.47
0.1285,306.99
0.1286,301.48
0.1285,305.61
0.1285,303.92
0.1285,303.52
0.1286,300.71
0.1285,297.91
0.1285,301.98
0.1285,305.82
0.1286,301.51
0.1285,305.17
0.1286,307.20
0.1286,309.34
0.1286,305.44
0.1286,302.10
0.1286,299.58
0.1286,304.01
0.1286,307.05
0.1286,310.52
0.1286,304.40
0.1286,308.47
0.1287,305.46
0.1286,302.72
0.1286,306.85
0.1286,310.60
0.1287,300.98
0.1286,305.20
0.1286,308.35
0.1287,302.99
0.1286,307.17
0.1286,310.85
0.1286,308.11
0.1286,308.15
0.1286,308.71
0.1286,309.95
0.1286,301.28
0.1286,304.74
0.1286,308.51
0.1287,305.51
0.1287,304.12
0.1286,308.84
0.1287,306.17
0.1286,303.38
0.1287,306.87
0.1286,309.76
0.1287,308.57
0.1286,308.48
0.1286,311.63
0.1289,301.88
0.1289,304.83
0.1290,300.71
0.1289,303.88
0.1289,308.04
0.1290,304.55
0.1324,303.79
0.1325,307.01
0.1325,310.75
0.1326,308.29
0.1325,307.54
0.1326,303.53
0.1325,302.80
0.1325,306.14
0.1326,309.87
0.1327,301.88
0.1326,306.08
0.1326,309.00
0.1327,303.24
0.1326,305.87
0.1326,310.14
0.1327,307.94
0.1326,307.22
0.1326,310.26
0.1327,308.67
0.1327,311.58
0.1328,306.90
0.1327,310.81
0.1328,309.69
0.1328,306.43
0.1341,304.88
0.1341,308.42
0.1341,311.47
0.1350,306.17
0.1357,310.63
0.1359,306.61
0.1373,304.60
0.1373,307.91
0.1373,312.03
0.1375,310.13
0.1378,310.07
0.1379,313.31
0.1379,311.98
0.1379,305.46
0.1379,309.62
0.1379,312.68
0.1380,309.73
0.1380,309.18
0.1380,313.26
0.1381,310.60
0.1380,309.15
0.1380,312.42
0.1381,311.18
0.1380,310.75
0.1380,314.34
0.1380,310.54
0.1380,307.23
0.1380,311.26
0.1381,305.15
0.1380,308.37
0.1380,312.50
0.1380,315.60
0.1381,305.40
0.1380,308.67
0.1380,312.79
0.1381,310.61
0.1380,309.19
0.1380,312.50
0.1380,315.76
0.1380,306.87
0.1380,311.26
0.1380,313.80
0.1381,306.80
0.1380,310.21
0.1380,314.22
0.1381,315.09
0.1381,313.90
0.1380,315.00
0.1380,317.04
0.1385,311.72
0.1422,309.53
0.1422,312.73
0.1422,316.84
0.1427,307.71
0.1429,311.71
0.1429,314.38
0.1430,313.95
0.1430,312.20
0.1430,316.47
0.1431,312.81
0.1430,310.16
0.1430,313.28
0.1430,317.30
0.1431,313.89
0.1431,311.53
0.1431,314.00
0.1431,318.38
0.1431,313.23
0.1431,316.08
0.1431,316.82
0.1431,319.40
0.1431,309.99
0.1431,313.62
0.1431,316.91
0.1432,314.39
0.1431,311.17
0.1431,314.38
0.1431,318.31
0.1432,316.74
0.1431,316.68
0.1431,317.24
0.1431,318.39
0.1432,313.13
0.1431,312.00
0.1431,316.14
0.1431,319.18
0.1432,313.17
0.1431,315.45
0.1432,320.13
0.1432,309.04
0.1431,313.64
0.1431,316.19
0.1431,320.54
0.1431,311.99
0.1431,316.13
0.1431,318.28
0.1432,311.89
0.1431,314.96
0.1431,319.02
0.1433,314.38
0.1432,310.61
0.1431,313.81
0.1431,317.91
0.1432,315.75
0.1431,314.83
0.1431,317.90
0.1432,317.27
0.1431,316.26
0.1432,316.74
0.1432,310.17
0.1431,314.10
0.1432,317.26
0.1432,311.66
0.1432,314.06
0.1431,319.06
0.1432,314.86
0.1431,311.88
0.1431,315.90
0.1432,314.73
0.1432,312.79
0.1432,316.64
0.1432,319.73
0.1433,310.28
0.1432,313.53
0.1431,317.67
0.1432,320.59
0.1433,309.42
0.1432,312.60
0.1432,316.83
0.1433,315.45
0.1433,313.62
0.1433,316.34
0.1433,320.32
0.1435,308.49
0.1433,312.06
0.1433,316.01
0.1435,310.10
0.1434,313.18
0.1434,317.25
0.1434,319.51
0.1434,315.22
0.1434,318.04
0.1463,311.45
0.1465,314.65
0.1466,313.86
0.1482,312.91
0.1482,317.22
0.1483,320.24
0.1484,312.23
0.1483,314.60
0.1483,319.63
0.1483,322.43
0.1484,317.59
0.1483,320.92
0.1484,317.11
0.1523,315.09
0.1523,319.82
0.1523,322.98
0.1524,326.40
0.1528,315.39
0.1529,319.52
0.1530,322.65
0.1531,313.67
0.1531,316.75
0.1531,320.94
0.1531,322.03
0.1531,317.25
0.1531,320.52
0.1530,324.50
0.1536,315.40
0.1540,319.60
0.1541,322.72
0.1541,320.17
0.1541,323.11
0.1542,313.85
0.1541,316.98
0.1542,320.22
0.1542,323.71
0.1543,317.14
0.1542,320.44
0.1542,324.33
0.1543,321.21
0.1543,317.58
0.1543,320.82
0.1544,324.57
0.1560,315.58
0.1574,320.19
0.1574,323.42
0.1575,327.06
0.1578,321.53
0.1579,325.06
0.1580,314.46
0.1578,317.63
0.1579,321.05
0.1579,325.01
0.1579,322.56
0.1579,321.64
0.1579,324.77
0.1579,327.41
0.1580,319.38
0.1579,324.33
0.1581,319.25
0.1580,315.84
0.1580,318.38
0.1580,323.21
0.1580,321.11
0.1579,319.83
0.1579,322.99
0.1580,325.14
0.1580,319.79
0.1580,323.97
0.1580,326.93
0.1581,318.33
0.1580,321.67
0.1580,325.38
0.1580,322.74
0.1580,320.63
0.1580,323.97
0.1580,325.73
0.1579,326.71
0.1581,316.95
0.1580,319.80
0.1580,323.80
0.1581,321.17
0.1581,318.29
0.1580,321.64
0.1580,325.47
0.1581,322.29
0.1580,320.00
0.1580,322.60
0.1580,327.18
0.1581,319.92
0.1580,323.97
0.1580,326.39
0.1581,321.33
0.1580,324.24
0.1580,327.62
0.1580,317.95
0.1580,322.52
0.1580,325.81
0.1581,318.61
0.1580,320.47
0.1580,324.05
0.1580,327.44
0.1581,317.59
0.1580,319.90
0.1580,324.94
0.1580,327.45
0.1580,318.69
0.1580,321.93
0.1580,326.23
0.1581,317.54
0.1580,321.68
0.1580,324.93
0.1581,321.76
0.1593,318.09
0.1593,322.81
0.1593,326.16
0.1596,320.21
0.1598,323.86
0.1598,327.71
0.1599,326.81
0.1599,326.02
0.1599,328.82
0.1600,322.46
0.1599,325.65
0.1599,328.34
0.1600,320.47
0.1600,324.55
0.1600,327.57
0.1600,328.66
0.1600,329.25
0.1600,329.99
0.1600,327.57
0.1600,326.61
0.1600,326.56
0.1600,330.49
0.1600,329.03
0.1600,327.28
0.1600,327.81
0.1600,330.87
0.1601,327.21
0.1600,328.82
0.1600,328.70
0.1600,329.28
0.1601,327.50
0.1600,330.25
0.1600,328.45
0.1601,329.38
0.1601,330.81
0.1601,329.36
0.1601,323.99
0.1601,321.11
0.1601,324.54
0.1602,323.06
0.1601,320.87
0.1601,324.88
0.1601,328.23
0.1602,321.79
0.1601,324.28
0.1601,328.84
0.1601,331.81
0.1601,328.39
0.1601,330.52
0.1602,321.98
0.1601,325.18
0.1602,324.19
0.1601,321.88
0.1601,326.50
0.1601,329.43
0.1602,323.21
0.1622,323.09
0.1622,327.29
0.1622,330.19
0.1642,323.32
0.1649,327.61
0.1649,330.81
0.1660,320.64
0.1670,325.10
0.1670,328.36
0.1671,331.37
0.1671,331.80
0.1673,321.67
0.1672,326.11
0.1672,330.32
0.1673,327.36
0.1672,325.44
0.1673,328.40
0.1672,332.77
0.1673,327.12
0.1672,324.73
0.1672,328.72
0.1673,327.35
0.1672,324.96
0.1672,329.18
0.1672,332.17
0.1672,333.32
0.1673,323.50
0.1673,327.52
0.1673,330.55
0.1673,334.18
0.1674,324.66
0.1674,328.86
0.1674,331.11
0.1676,323.89
0.1677,327.16
0.1678,331.22
0.1679,329.02
0.1686,326.14
0.1686,329.52
0.1686,333.45
0.1695,325.14
0.1702,329.29
0.1702,332.39
0.1703,328.59
0.1725,328.35
0.1726,332.68
0.1727,330.23
0.1743,328.26
0.1757,331.99
0.1757,335.87
0.1772,330.98
0.1788,330.95
0.1788,334.94
0.1790,331.16
0.1828,328.70
0.1829,332.87
0.1829,336.14
0.1846,329.72
0.1861,333.59
0.1862,337.46
0.1863,334.59
0.1890,335.20
0.1890,338.63
0.1891,341.83
0.1913,331.64
0.1931,336.39
0.1931,339.64
0.1932,337.96
0.1932,340.20
0.1933,338.54
0.1955,335.27
0.1956,340.60
0.1957,343.44
0.1969,335.07
0.1980,338.88
0.1981,343.02
0.1982,339.77
0.1997,338.42
0.1998,341.58
0.1998,345.38
0.2004,335.94
0.2007,340.42
0.2007,343.57
0.2011,335.44
0.2012,338.77
0.2012,343.13
0.2013,345.41
0.2014,337.75
0.2015,341.12
0.2015,345.14
0.2016,341.67
0.2016,340.89
0.2016,344.12
0.2018,332.11
0.2015,336.08
0.2015,340.26
0.2015,343.37
0.2016,336.07
0.2016,339.49
0.2015,343.54
0.2016,340.52
0.2016,338.62
0.2016,340.87
0.2017,339.10
0.2015,335.60
0.2016,339.85
0.2016,343.04
0.2016,335.89
0.2015,338.90
0.2015,343.13
0.2016,340.99
0.2016,338.44
0.2016,341.68
0.2016,345.57
0.2017,339.41
0.2016,336.84
0.2016,340.12
0.2016,344.47
0.2017,340.66
0.2016,336.01
0.2016,341.32
0.2015,345.33
0.2016,340.52
0.2016,337.97
0.2016,341.13
0.2016,345.22
0.2018,334.94
0.2018,338.21
0.2017,342.56
0.2019,336.11
0.2019,339.28
0.2019,343.60
0.2020,346.63
0.2020,335.89
0.2020,340.20
0.2020,344.35
0.2021,338.42
0.2020,337.55
0.2020,341.04
0.2020,345.27
0.2020,336.65
0.2020,340.98
0.2020,343.95
0.2020,347.27
0.2021,337.23
0.2020,342.27
0.2020,345.64
0.2021,334.89
0.2020,338.17
0.2020,342.54
0.2020,345.63
0.2021,335.53
0.2020,339.04
0.2020,343.00
0.2020,340.39
0.2020,339.11
0.2020,342.22
0.2021,339.68
0.2020,337.60
0.2020,341.84
0.2020,344.93
0.2021,336.57
0.2020,338.73
0.2020,343.92
0.2020,343.45
0.2020,344.01
0.2021,342.59
0.2020,341.92
0.2020,344.59
0.2021,342.95
0.2021,345.04
0.2021,335.93
0.2021,339.10
0.2021,341.19
0.2020,337.25
0.2020,341.57
0.2020,344.63
0.2021,335.88
0.2020,339.04
0.2020,343.24
0.2021,344.56
0.2021,337.59
0.2021,340.63
0.2021,343.38
0.2021,341.63
0.2020,340.43
0.2020,343.54
0.2020,346.16
0.2021,334.92
0.2020,337.82
0.2020,341.48
0.2021,338.81
0.2020,339.04
0.2021,341.89
0.2020,345.12
0.2021,337.06
0.2020,341.74
0.2020,344.45
0.2021,342.03
0.2020,338.16
0.2020,341.70
0.2020,346.16
0.2021,338.46
0.2020,342.05
0.2021,345.60
0.2021,342.00
0.2020,339.04
0.2020,342.70
0.2020,345.33
0.2020,344.99
0.2021,340.73
0.2020,339.22
0.2021,342.90
0.2021,346.30
0.2022,337.43
0.2021,341.03
0.2021,344.74
0.2022,341.98
0.2022,339.53
0.2021,342.77
0.2021,346.61
0.2021,343.74
0.2021,341.29
0.2021,345.09
0.2021,347.90
0.2021,339.60
0.2021,343.22
0.2021,346.98
0.2022,337.63
0.2021,340.59
0.2021,345.35
0.2022,341.46
0.2021,337.24
0.2021,340.03
0.2021,344.66
0.2022,336.74
0.2021,340.42
0.2021,344.05
0.2022,338.75
0.2021,338.79
0.2021,342.47
0.2021,345.87
0.2021,337.60
0.2021,342.64
0.2021,346.26
0.2022,338.62
0.2021,341.47
0.2021,345.89
0.2022,342.52
0.2021,340.94
0.2021,343.65
0.2021,342.05
0.2021,338.29
0.2020,342.97
0.2020,345.69
0.2021,343.36
0.2021,340.27
0.2021,344.81
0.2021,347.45
0.2022,339.05
0.2021,341.76
0.2021,346.39
0.2021,342.70
0.2020,341.09
0.2020,343.80
0.2021,341.21
0.2021,338.51
0.2021,343.25
0.2021,344.91
0.2023,335.63
0.2021,338.50
0.2021,342.81
0.2021,345.22
0.2021,344.92
0.2021,346.56
0.2022,341.45
0.2021,340.37
0.2021,344.78
0.2021,347.37
0.2022,339.62
0.2021,343.04
0.2021,347.63
0.2022,338.52
0.2021,342.12
0.2021,345.60
0.2021,349.19
